# scan = 78
# date = 9/11/2024
# time = 4:46:39 PM
# proposal = 34735
# experiment = Magnons and paramagnon coupling in MnTe
# experiment_number = 813
# command = scanrel a1 2 -2 0.1 preset time 30
# builtin_command = scan a1 @(a1)+2 @(a1)+-2 0.100000
# users = Benjamin Frandsen, Songxue Chi, George Yumnam, Huibo Cao, Michael Manley, Raphael Hermann, Eleanor Clements
# local_contact = Eleanor Clements
# scan_title = a1 calib incoher
# monochromator = PG002
# analyzer = Pg002
# sense = -+-
# collimation = 48-40-40-120
# samplename = MnTe
# sampletype = crystal
# samplemosaic = 30.000000
# latticeconstants = 4.128474,4.128474,6.651507,90.000000,90.000000,120.000000
# ubmatrix = -0.000328,-0.004396,-0.150319,-0.279308,-0.152332,0.000314,-0.014647,0.234528,-0.002614
# mode = 0
# plane_normal = -0.017470,-0.052341,0.998476
# ubconf = UB09Sep2024_43441PM.ini
# preset_type = normal 
# preset_channel = time
# preset_value = 1.000000
# def_x = a1
# def_y = detector
# col_headers = 
#   Pt.         a1       time   detector    monitor        mcu focal_length         m1         m2   mcrystal       marc     mtrans     mfocus       ampl         dc       freq     output       temp     temp_2         s1         s2        sgl        sgu        bbb        bbl        bbr        bbt        bab        bal        bar        bat        stl        stu         a2          q          h          k          l         ei         ef          e   ampl_out output_state        vti     sample
      1   161.4166      1.000      0.000   2513.000      1.000    66.7975   -20.0773   -41.1659   120.0962    -0.1480    -3.0001   -34.2897     0.0000     0.0000     0.0000     1.0000     5.0000   300.0000    23.0003    42.4995     1.0010    -2.9998     9.0000    10.0000     5.0000    14.0000    16.0000     5.0000    10.0000    16.0000    -0.0005     0.0005   -41.1662     1.9307    -0.0323    -0.0000     2.0430    14.7002    14.7000     0.0002     2.0000     1.0000     5.0010     0.000
      2   161.3165      1.000      0.000   2561.000      1.020    66.7975   -20.0773   -41.1659   120.0962    -0.1480    -3.0001   -34.2897     0.0000     0.0000     0.0000     1.0000     5.0000   300.0000    23.0003    42.4995     1.0010    -2.9998     9.0000    10.0000     5.0000    14.0000    16.0000     5.0000    10.0000    16.0000    -0.0005     0.0005   -41.1662     1.9307    -0.0323    -0.0000     2.0430    14.7002    14.7000     0.0002     2.0000     1.0000     4.9989     0.000
      3   161.2164      1.000      0.000   2584.000      1.029    66.7975   -20.0773   -41.1659   120.0962    -0.1480    -3.0001   -34.2897     0.0000     0.0000     0.0000     1.0000     5.0000   300.0000    23.0003    42.4995     1.0010    -2.9998     9.0000    10.0000     5.0000    14.0000    16.0000     5.0000    10.0000    16.0000    -0.0005     0.0005   -41.1662     1.9307    -0.0323    -0.0000     2.0430    14.7002    14.7000     0.0002     2.0000     1.0000     4.9997     0.000
      4   161.1165      1.000      0.000   2564.000      1.021    66.7975   -20.0773   -41.1659   120.0962    -0.1480    -3.0001   -34.2897     0.0000     0.0000     0.0000     1.0000     5.0000   300.0000    23.0003    42.4995     1.0010    -2.9998     9.0000    10.0000     5.0000    14.0000    16.0000     5.0000    10.0000    16.0000    -0.0005     0.0005   -41.1662     1.9307    -0.0323    -0.0000     2.0430    14.7002    14.7000     0.0002     2.0000     1.0000     4.9995     0.000
      5   161.0165      1.000      0.000   2527.000      1.006    66.7975   -20.0773   -41.1659   120.0962    -0.1480    -3.0001   -34.2897     0.0000     0.0000     0.0000     1.0000     5.0000   300.0000    23.0003    42.4995     1.0010    -2.9998     9.0000    10.0000     5.0000    14.0000    16.0000     5.0000    10.0000    16.0000    -0.0005     0.0005   -41.1662     1.9307    -0.0323    -0.0000     2.0430    14.7002    14.7000     0.0002     2.0000     1.0000     4.9997     0.000
      6   160.9164      1.000      1.000   2514.000      1.001    66.7975   -20.0773   -41.1659   120.0962    -0.1480    -3.0001   -34.2897     0.0000     0.0000     0.0000     1.0000     5.0000   300.0000    23.0003    42.4995     1.0010    -2.9998     9.0000    10.0000     5.0000    14.0000    16.0000     5.0000    10.0000    16.0000    -0.0005     0.0005   -41.1662     1.9307    -0.0323    -0.0000     2.0430    14.7002    14.7000     0.0002     2.0000     1.0000     5.0010     0.000
      7   160.6168      0.000      0.000      0.000      0.000    66.7975   -20.0773   -41.1659   120.0962    -0.1480    -3.0001   -34.2897     0.0000     0.0000     0.0000     1.0000     5.0000   300.0000    23.0003    42.4995     1.0010    -2.9998     9.0000    10.0000     5.0000    14.0000    16.0000     5.0000    10.0000    16.0000    -0.0005     0.0005   -41.1662     1.9307    -0.0323    -0.0000     2.0430    14.7002    14.7000     0.0002     2.0000     1.0000     5.0001     0.000
# Sum of Counts = 1
# Center of Mass = 160.916400+/-227.570155
# Full Width Half-Maximum = 0.000000+/-NaN
# 4:47:21 PM  9/11/2024   scan stopped!!
