# scan = 19
# date = 3/6/2025
# time = 12:53:17 AM
# proposal = 35218
# experiment = Spin-phonon coupling in NiO
# experiment_number = 970
# command = scan h 0 k 0 l 1.4 e 14 16 1 preset countfile Px_600mcu
# builtin_command = scan h 0 k 0 l 1.4 e 14 16 1 preset countfile px_600mcu
# users = Chen Li, Masaaki Matsuda, Qiyang Sun, Wei Tian
# local_contact = Masa Matsuda
# scan_title = 0 0 1.4 E-scan Px SF/NSF
# monochromator = Heusler
# analyzer = Heusler
# sense = +-+
# collimation = 48-80-999-999
# samplename = NiO
# sampletype = crystal
# samplemosaic = 30.000000
# latticeconstants = 4.191946,4.191946,4.191946,90.000000,90.000000,90.000000
# ubmatrix = -0.166074,-0.169018,0.027567,-0.015033,-0.023864,-0.236880,0.170590,-0.166646,0.005962
# mode = 0
# plane_normal = 0.007126,0.021375,0.816262
# ubconf = UB05Mar2025_45400PM.ini
# preset_type = countfile
# countfile = guide 16 parq
# countfile = drive hguide 0.476*sqrt(@(ei)) vguide 1.9
# countfile = count preset mcu 600
# countfile = drive hguide 0 vguide 0
# countfile = count preset mcu 600
# def_x = e
# def_y = detector_1
# col_headers = 
#   Pt.          h          k          l          e     time_1 detector_1  monitor_1      mcu_1     time_2 detector_2  monitor_2      mcu_2         m1         m2       marc     mtrans     mfocus     fguide     hguide     vguide    tbguide     aguide     bguide     cguide fguide_mode hguide_mode vguide_mode tbguide_mode aguide_mode bguide_mode cguide_mode fguide_out hguide_out vguide_out tbguide_out aguide_out bguide_out cguide_out fguide_volt hguide_volt vguide_volt tbguide_volt aguide_volt bguide_volt cguide_volt         s1         s2        sgl        sgu slit_pre_bt slit_pre_lf slit_pre_rt slit_pre_tp        stl        stu         a1         a2          q         ei         ef fguide_amps hguide_amps vguide_amps tbguide_amps aguide_amps bguide_amps cguide_amps    coldtip     sample       temp
      1    -0.0003    -0.0003     1.4000    13.9943    694.606     47.000 535141.000    600.001    696.547     48.000 535141.000    600.001   -49.1584    28.4350     0.5070     9.0000   279.9974     4.5000     0.0000     0.0000     0.0000    -1.3246     5.0251   -15.4515     1.0000     1.0000     1.0000     1.0000     1.0000     1.0000     1.0000     1.0000     1.0000     1.0000     1.0000     1.0000     1.0000     1.0000    20.0000    20.0000    20.0000    20.0000    20.0000    20.0000    20.0000    37.7623   -33.4526    -0.4995     1.5000    18.0000     9.0000     9.0000    18.0000    -0.0005     0.0000    20.0706    40.1325     2.0984    28.7004    14.7061     4.5112     0.0013     0.0042     0.0063    -1.3236     5.0353   -15.4839     0.0000     0.0000   300.000
      2    -0.0002    -0.0002     1.3999    14.9944    693.274     47.000 535141.000    600.001    692.750     75.000 535141.000    600.001   -49.1584    27.9422     0.5070     9.0000   279.9974     4.5000     0.0000     0.0000     0.0000     0.8178     3.6246   -18.9932     1.0000     1.0000     1.0000     1.0000     1.0000     1.0000     1.0000     1.0000     1.0000     1.0000     1.0000     1.0000     1.0000     1.0000    20.0000    20.0000    20.0000    20.0000    20.0000    20.0000    20.0000    36.2479   -32.4201    -0.4995     1.5000    18.0000     9.0000     9.0000    18.0000    -0.0005     0.0000    20.0706    40.1325     2.0982    29.7005    14.7061     4.5109     0.0010     0.0042     0.0067     0.7849     3.6311   -19.0335     0.0000     0.0000   300.000
      3    -0.0002    -0.0002     1.3999    15.9945    681.173     33.000 535141.000    600.001    681.620     35.000 535141.000    600.001   -49.1584    27.4743     0.5070     9.0000   279.9974     4.5000     0.0000     0.0000     0.0000     0.6758     3.7382   -18.8464     1.0000     1.0000     1.0000     1.0000     1.0000     1.0000     1.0000     1.0000     1.0000     1.0000     1.0000     1.0000     1.0000     1.0000    20.0000    20.0000    20.0000    20.0000    20.0000    20.0000    20.0000    34.7235   -31.3705    -0.4995     1.5000    18.0000     9.0000     9.0000    18.0000    -0.0005     0.0000    20.0706    40.1325     2.0982    30.7006    14.7061     4.5112     0.0013     0.0042     0.0063     0.6465     3.7441   -18.8858     0.0000     0.0000   300.000
# Sum of Counts = 127
# Center of Mass = 14.884153+/-1.869132
# Full Width Half-Maximum = 1.572123+/-2.094247
# 2:02:55 AM  3/6/2025   scan completed.
