# scan = 339
# date = 8/15/2024
# time = 3:35:22 PM
# proposal = 32912
# experiment = Quantum Phase Transition in Transverse Field Ising Ferromagnet HoV6Sn6
# experiment_number = 1031
# command = scan h 1.5 k 0 l 0 e -0.4 1.6 0.1 preset time 30
# builtin_command = scan h 1.5 k 0 l 0 e -0.4 1.6 0.1 preset time 30
# users = Aashish Sapkota, Benjamin Ueland, Fei Li, Rob McQueeney, Tianxiong Han
# local_contact = Wei Tian, Bing Li
# scan_title = HoV6Sn6, e-scan (1.5 0 0), T=0.25837 K,  H=1.8 T
# monochromator = PG002
# analyzer = Pg002
# sense = +-+
# collimation = 40-40-40-80
# samplename = HoV6Sn6
# sampletype = crystal
# samplemosaic = 30.000000
# latticeconstants = 5.520013,5.520013,9.152013,90.000000,90.000000,120.000000
# ubmatrix = 0.015667,0.005926,0.108953,0.208596,0.104928,-0.008180,-0.000560,0.180868,0.001176
# mode = 0
# plane_normal = -0.010528,0.003477,0.999939
# ubconf = UB12Aug2024_54830PM.ini
# preset_type = normal 
# preset_channel = time
# preset_value = 30.000000
# def_x = e
# def_y = detector
# col_headers = 
#   Pt.          h          k          l          e       time   detector    monitor        mcu         m2      mag_i         s1         s2        sgl        sgu   slitb_bt   slitb_lf   slitb_rt   slitb_tp   slita_bt   slita_lf   slita_rt   slita_tp        stl        stu         a1         a2          q         ei         ef        vti       temp     temp_2         lt         ht      1kpot  sorb_temp       sorb  sample_ht persistent_field
      1     1.5000     0.0000     0.0000    -0.3998     30.000     55.000 1024247.000     43.254    41.5367     0.0001  -106.4824   -43.5157     0.6032     0.1990    22.0000     7.0000     8.0000    22.0000    23.0000     3.0000     7.0000    23.0000    -3.0005     0.0010    20.4745    40.9482     1.9715    14.4503    14.8501     1.6583     1.0000     0.0000     0.2584     0.3158     1.6885     1.7459     0.0000     0.0000     1.800
      2     1.4999     0.0000    -0.0000    -0.3000     30.000     75.000 1045643.000     44.158    41.5367    -0.0000  -106.7667   -43.5942     0.6032     0.1990    22.0000     7.0000     8.0000    22.0000    23.0000     3.0000     7.0000    23.0000    -3.0005     0.0010    20.5482    41.0929     1.9714    14.4503    14.7502     1.6582     1.0000     0.0000     0.2585     0.3161     1.6874     1.7454     0.0000     0.0000     1.800
      3     1.5000     0.0000     0.0000    -0.2000     30.000      0.000      0.000      0.000    41.5367     0.0001  -107.0516   -43.6772     0.6032     0.1990    22.0000     7.0000     8.0000    22.0000    23.0000     3.0000     7.0000    23.0000    -3.0005     0.0010    20.6213    41.2392     1.9715    14.4503    14.6503     1.6582     1.0000     0.0000     0.2585     0.3160     1.6889     1.7452     0.0000     0.0000     1.800
# Sum of Counts = 130
# Center of Mass = -0.342223+/-0.042667
# Full Width Half-Maximum = 0.098612+/-0.059950
# 3:37:00 PM  8/15/2024   scan stopped!!
