# scan = 412
# date = 8/16/2024
# time = 8:36:47 PM
# proposal = 32912
# experiment = Quantum Phase Transition in Transverse Field Ising Ferromagnet HoV6Sn6
# experiment_number = 1031
# command = scanrel s1 1 -1 0.1
# builtin_command = scan s1 @(s1)+1 @(s1)+-1 0.100000
# users = Aashish Sapkota, Benjamin Ueland, Fei Li, Rob McQueeney, Tianxiong Han
# local_contact = Wei Tian, Bing Li
# scan_title = OP on Hc (2 0 0) H = 2.2 T, T = 1.24351 K
# monochromator = PG002
# analyzer = Pg002
# sense = +-+
# collimation = 40-40-40-80
# samplename = HoV6Sn6
# sampletype = crystal
# samplemosaic = 30.000000
# latticeconstants = 5.520013,5.520013,9.152013,90.000000,90.000000,120.000000
# ubmatrix = 0.015667,0.005926,0.108953,0.208596,0.104928,-0.008180,-0.000560,0.180868,0.001176
# mode = 0
# plane_normal = -0.010528,0.003477,0.999939
# ubconf = UB12Aug2024_54830PM.ini
# preset_type = normal 
# preset_channel = time
# preset_value = 5.000000
# def_x = s1
# def_y = detector
# col_headers = 
#   Pt.         s1       time   detector    monitor        mcu         m2      mag_i         s2        sgl        sgu   slitb_bt   slitb_lf   slitb_rt   slitb_tp   slita_bt   slita_lf   slita_rt   slita_tp        stl        stu         a1         a2          q          h          k          l         ei         ef          e        vti       temp     temp_2         lt         ht      1kpot  sorb_temp       sorb  sample_ht persistent_field
      1  -114.5534      5.000      6.000 198918.000      8.400    41.5367    -0.0000   -59.6975     0.6032     0.1990    22.0000     7.0000     8.0000    22.0000    23.0000     3.0000     7.0000    23.0000    -3.0005     0.0010    20.7694    41.5442     2.6285     1.9995     0.0000     0.0674    14.4503    14.4453     0.0050     1.6476     1.0000     0.0000     1.2455     1.2398     1.6876    24.0485    24.0000     0.0000     2.200
      2  -114.6534      5.000     15.000 199767.000      8.436    41.5367     0.0001   -59.6975     0.6032     0.1990    22.0000     7.0000     8.0000    22.0000    23.0000     3.0000     7.0000    23.0000    -3.0005     0.0010    20.7694    41.5442     2.6285     1.9996     0.0000     0.0607    14.4503    14.4453     0.0050     1.6471     1.0000     0.0000     1.2421     1.2369     1.6873    23.9409    24.0000     0.0000     2.200
      3  -114.7534      5.000     16.000 198002.000      8.362    41.5367    -0.0000   -59.6975     0.6032     0.1990    22.0000     7.0000     8.0000    22.0000    23.0000     3.0000     7.0000    23.0000    -3.0005     0.0010    20.7694    41.5442     2.6285     1.9996     0.0000     0.0540    14.4503    14.4453     0.0050     1.6463     1.0000     0.0000     1.2443     1.2388     1.6893    24.0258    24.0000     0.0000     2.200
      4  -114.8534      5.000     11.000 198575.000      8.386    41.5367    -0.0000   -59.6975     0.6032     0.1990    22.0000     7.0000     8.0000    22.0000    23.0000     3.0000     7.0000    23.0000    -3.0005     0.0010    20.7694    41.5442     2.6285     1.9997     0.0000     0.0473    14.4503    14.4453     0.0050     1.6460     1.0000     0.0000     1.2478     1.2415     1.6878    24.0067    24.0000     0.0000     2.200
      5  -114.9534      5.000      9.000 197767.000      8.352    41.5367     0.0000   -59.6975     0.6032     0.1990    22.0000     7.0000     8.0000    22.0000    23.0000     3.0000     7.0000    23.0000    -3.0005     0.0010    20.7694    41.5442     2.6285     1.9997     0.0000     0.0407    14.4503    14.4453     0.0050     1.6458     1.0000     0.0000     1.2439     1.2385     1.6865    23.9633    24.0000     0.0000     2.200
      6  -115.0534      5.000     23.000 198576.000      8.386    41.5367    -0.0000   -59.6975     0.6032     0.1990    22.0000     7.0000     8.0000    22.0000    23.0000     3.0000     7.0000    23.0000    -3.0005     0.0010    20.7694    41.5442     2.6285     1.9997     0.0000     0.0340    14.4503    14.4453     0.0050     1.6457     1.0000     0.0000     1.2482     1.2418     1.6866    24.0482    24.0000     0.0000     2.200
      7  -115.1534      5.000     19.000 198403.000      8.379    41.5367    -0.0000   -59.6975     0.6032     0.1990    22.0000     7.0000     8.0000    22.0000    23.0000     3.0000     7.0000    23.0000    -3.0005     0.0010    20.7694    41.5442     2.6285     1.9998     0.0000     0.0273    14.4503    14.4453     0.0050     1.6455     1.0000     0.0000     1.2477     1.2414     1.6866    23.9632    24.0000     0.0000     2.200
      8  -115.2534      5.000     54.000 198591.000      8.387    41.5367     0.0001   -59.6975     0.6032     0.1990    22.0000     7.0000     8.0000    22.0000    23.0000     3.0000     7.0000    23.0000    -3.0005     0.0010    20.7694    41.5442     2.6285     1.9998     0.0000     0.0206    14.4503    14.4453     0.0050     1.6455     1.0000     0.0000     1.2482     1.2419     1.6866    24.0334    24.0000     0.0000     2.200
      9  -115.3534      5.000    184.000 198380.000      8.378    41.5367     0.0001   -59.6975     0.6032     0.1990    22.0000     7.0000     8.0000    22.0000    23.0000     3.0000     7.0000    23.0000    -3.0005     0.0010    20.7694    41.5442     2.6285     1.9998     0.0000     0.0139    14.4503    14.4453     0.0050     1.6454     1.0000     0.0000     1.2497     1.2432     1.6876    24.0300    24.0000     0.0000     2.200
     10  -115.4534      5.000    402.000 198429.000      8.380    41.5367     0.0001   -59.6975     0.6032     0.1990    22.0000     7.0000     8.0000    22.0000    23.0000     3.0000     7.0000    23.0000    -3.0005     0.0010    20.7694    41.5442     2.6285     1.9998     0.0000     0.0073    14.4503    14.4453     0.0050     1.6453     1.0000     0.0000     1.2468     1.2408     1.6852    23.9487    24.0000     0.0000     2.200
     11  -115.5534      5.000    475.000 198229.000      8.371    41.5367    -0.0000   -59.6975     0.6032     0.1990    22.0000     7.0000     8.0000    22.0000    23.0000     3.0000     7.0000    23.0000    -3.0005     0.0010    20.7694    41.5442     2.6285     1.9998     0.0000     0.0006    14.4503    14.4453     0.0050     1.6453     1.0000     0.0000     1.2508     1.2445     1.6861    24.0513    24.0000     0.0000     2.200
     12  -115.6534      5.000    336.000 198820.000      8.396    41.5367     0.0001   -59.6975     0.6032     0.1990    22.0000     7.0000     8.0000    22.0000    23.0000     3.0000     7.0000    23.0000    -3.0005     0.0010    20.7694    41.5442     2.6285     1.9998     0.0000    -0.0061    14.4503    14.4453     0.0050     1.6453     1.0000     0.0000     1.2492     1.2431     1.6860    23.9528    24.0000     0.0000     2.200
     13  -115.7534      5.000    152.000 199120.000      8.409    41.5367     0.0001   -59.6975     0.6032     0.1990    22.0000     7.0000     8.0000    22.0000    23.0000     3.0000     7.0000    23.0000    -3.0005     0.0010    20.7694    41.5442     2.6285     1.9998     0.0000    -0.0128    14.4503    14.4453     0.0050     1.6453     1.0000     0.0000     1.2485     1.2424     1.6856    23.9948    24.0000     0.0000     2.200
     14  -115.8534      5.000     46.000 198282.000      8.374    41.5367     0.0001   -59.6975     0.6032     0.1990    22.0000     7.0000     8.0000    22.0000    23.0000     3.0000     7.0000    23.0000    -3.0005     0.0010    20.7694    41.5442     2.6285     1.9998     0.0000    -0.0195    14.4503    14.4453     0.0050     1.6453     1.0000     0.0000     1.2527     1.2458     1.6871    24.0095    24.0000     0.0000     2.200
     15  -115.9534      5.000     22.000 198695.000      8.391    41.5367     0.0001   -59.6975     0.6032     0.1990    22.0000     7.0000     8.0000    22.0000    23.0000     3.0000     7.0000    23.0000    -3.0005     0.0010    20.7694    41.5442     2.6285     1.9998     0.0000    -0.0262    14.4503    14.4453     0.0050     1.6449     1.0000     0.0000     1.2484     1.2424     1.6862    23.9565    24.0000     0.0000     2.200
     16  -116.0534      5.000      8.000 199628.000      8.430    41.5367    -0.0000   -59.6975     0.6032     0.1990    22.0000     7.0000     8.0000    22.0000    23.0000     3.0000     7.0000    23.0000    -3.0005     0.0010    20.7694    41.5442     2.6285     1.9997     0.0000    -0.0328    14.4503    14.4453     0.0050     1.6447     1.0000     0.0000     1.2518     1.2454     1.6872    24.0408    24.0000     0.0000     2.200
     17  -116.1534      5.000     11.000 198558.000      8.385    41.5367    -0.0001   -59.6975     0.6032     0.1990    22.0000     7.0000     8.0000    22.0000    23.0000     3.0000     7.0000    23.0000    -3.0005     0.0010    20.7694    41.5442     2.6285     1.9997     0.0000    -0.0395    14.4503    14.4453     0.0050     1.6448     1.0000     0.0000     1.2523     1.2454     1.6869    23.9776    24.0000     0.0000     2.200
     18  -116.2534      5.000     14.000 198463.000      8.381    41.5367     0.0000   -59.6975     0.6032     0.1990    22.0000     7.0000     8.0000    22.0000    23.0000     3.0000     7.0000    23.0000    -3.0005     0.0010    20.7694    41.5442     2.6285     1.9997     0.0000    -0.0462    14.4503    14.4453     0.0050     1.6448     1.0000     0.0000     1.2502     1.2439     1.6850    23.9970    24.0000     0.0000     2.200
     19  -116.3534      5.000     17.000 198554.000      8.385    41.5367    -0.0000   -59.6975     0.6032     0.1990    22.0000     7.0000     8.0000    22.0000    23.0000     3.0000     7.0000    23.0000    -3.0005     0.0010    20.7694    41.5442     2.6285     1.9996     0.0000    -0.0529    14.4503    14.4453     0.0050     1.6449     1.0000     0.0000     1.2542     1.2472     1.6867    24.0503    24.0000     0.0000     2.200
     20  -116.4534      5.000     16.000 197598.000      8.345    41.5367    -0.0000   -59.6975     0.6032     0.1990    22.0000     7.0000     8.0000    22.0000    23.0000     3.0000     7.0000    23.0000    -3.0005     0.0010    20.7694    41.5442     2.6285     1.9996     0.0000    -0.0596    14.4503    14.4453     0.0050     1.6450     1.0000     0.0000     1.2509     1.2443     1.6865    23.9464    24.0000     0.0000     2.200
     21  -116.5534      5.000     14.000 198992.000      8.404    41.5367    -0.0000   -59.6975     0.6032     0.1990    22.0000     7.0000     8.0000    22.0000    23.0000     3.0000     7.0000    23.0000    -3.0005     0.0010    20.7694    41.5442     2.6285     1.9995     0.0000    -0.0662    14.4503    14.4453     0.0050     1.6452     1.0000     0.0000     1.2525     1.2459     1.6865    24.0380    24.0000     0.0000     2.200
# Sum of Counts = 1850
# Center of Mass = -115.548697+/-3.799223
# Full Width Half-Maximum = 0.529700+/-1.288625
# 8:39:06 PM  8/16/2024   scan completed.
