# scan = 401
# date = 8/16/2024
# time = 7:01:26 PM
# proposal = 32912
# experiment = Quantum Phase Transition in Transverse Field Ising Ferromagnet HoV6Sn6
# experiment_number = 1031
# command = scanrel s1 1 -1 0.1
# builtin_command = scan s1 @(s1)+1 @(s1)+-1 0.100000
# users = Aashish Sapkota, Benjamin Ueland, Fei Li, Rob McQueeney, Tianxiong Han
# local_contact = Wei Tian, Bing Li
# scan_title = OP on Hc (2 0 0) H = 2 T, T = 2.63284 K
# monochromator = PG002
# analyzer = Pg002
# sense = +-+
# collimation = 40-40-40-80
# samplename = HoV6Sn6
# sampletype = crystal
# samplemosaic = 30.000000
# latticeconstants = 5.520013,5.520013,9.152013,90.000000,90.000000,120.000000
# ubmatrix = 0.015667,0.005926,0.108953,0.208596,0.104928,-0.008180,-0.000560,0.180868,0.001176
# mode = 0
# plane_normal = -0.010528,0.003477,0.999939
# ubconf = UB12Aug2024_54830PM.ini
# preset_type = normal 
# preset_channel = time
# preset_value = 5.000000
# def_x = s1
# def_y = detector
# col_headers = 
#   Pt.         s1       time   detector    monitor        mcu         m2      mag_i         s2        sgl        sgu   slitb_bt   slitb_lf   slitb_rt   slitb_tp   slita_bt   slita_lf   slita_rt   slita_tp        stl        stu         a1         a2          q          h          k          l         ei         ef          e        vti       temp     temp_2         lt         ht      1kpot  sorb_temp       sorb  sample_ht persistent_field
      1  -114.5534      5.000      7.000 197937.000      8.359    41.5367    -0.0000   -59.6975     0.6032     0.1990    22.0000     7.0000     8.0000    22.0000    23.0000     3.0000     7.0000    23.0000    -3.0005     0.0010    20.7694    41.5442     2.6285     1.9995     0.0000     0.0674    14.4503    14.4453     0.0050     1.6800     1.0000     0.0000     2.8658     2.7962     2.2083    35.0122    35.0000     4.0000     2.000
      2  -114.6534      5.000      9.000 198235.000      8.372    41.5367     0.0001   -59.6975     0.6032     0.1990    22.0000     7.0000     8.0000    22.0000    23.0000     3.0000     7.0000    23.0000    -3.0005     0.0010    20.7694    41.5442     2.6285     1.9996     0.0000     0.0607    14.4503    14.4453     0.0050     1.6811     1.0000     0.0000     2.9524     2.8832     2.2143    35.0318    35.0000     4.0000     2.000
      3  -114.7534      5.000      9.000 198368.000      8.377    41.5367     0.0000   -59.6975     0.6032     0.1990    22.0000     7.0000     8.0000    22.0000    23.0000     3.0000     7.0000    23.0000    -3.0005     0.0010    20.7694    41.5442     2.6285     1.9996     0.0000     0.0540    14.4503    14.4453     0.0050     1.6823     1.0000     0.0000     3.0577     2.9867     2.2192    34.9783    35.0000     4.0000     2.000
      4  -114.8534      5.000     15.000 198532.000      8.384    41.5367     0.0000   -59.6975     0.6032     0.1990    22.0000     7.0000     8.0000    22.0000    23.0000     3.0000     7.0000    23.0000    -3.0005     0.0010    20.7694    41.5442     2.6285     1.9997     0.0000     0.0473    14.4503    14.4453     0.0050     1.6843     1.0000     0.0000     3.1337     3.0618     2.2233    34.9676    35.0000     4.0000     2.000
      5  -114.9534      5.000     18.000 198197.000      8.370    41.5367     0.0000   -59.6975     0.6032     0.1990    22.0000     7.0000     8.0000    22.0000    23.0000     3.0000     7.0000    23.0000    -3.0005     0.0010    20.7694    41.5442     2.6285     1.9997     0.0000     0.0407    14.4503    14.4453     0.0050     1.6863     1.0000     0.0000     3.2206     3.1473     2.2285    35.0249    35.0000     4.0000     2.000
      6  -115.0534      5.000     18.000 198528.000      8.384    41.5367     0.0000   -59.6975     0.6032     0.1990    22.0000     7.0000     8.0000    22.0000    23.0000     3.0000     7.0000    23.0000    -3.0005     0.0010    20.7694    41.5442     2.6285     1.9997     0.0000     0.0340    14.4503    14.4453     0.0050     1.6879     1.0000     0.0000     3.2860     3.2185     2.2337    35.0206    35.0000     4.0000     2.000
      7  -115.1534      5.000     23.000 198968.000      8.403    41.5367    -0.0000   -59.6975     0.6032     0.1990    22.0000     7.0000     8.0000    22.0000    23.0000     3.0000     7.0000    23.0000    -3.0005     0.0010    20.7694    41.5442     2.6285     1.9998     0.0000     0.0273    14.4503    14.4453     0.0050     1.6893     1.0000     0.0000     3.3778     3.3065     2.2380    34.9671    35.0000     4.0000     2.000
      8  -115.2534      5.000     35.000 198762.000      8.394    41.5367    -0.0000   -59.6975     0.6032     0.1990    22.0000     7.0000     8.0000    22.0000    23.0000     3.0000     7.0000    23.0000    -3.0005     0.0010    20.7694    41.5442     2.6285     1.9998     0.0000     0.0206    14.4503    14.4453     0.0050     1.6907     1.0000     0.0000     3.4409     3.3682     2.2430    34.9839    35.0000     4.0000     2.000
      9  -115.3534      5.000    144.000 198530.000      8.384    41.5367    -0.0000   -59.6975     0.6032     0.1990    22.0000     7.0000     8.0000    22.0000    23.0000     3.0000     7.0000    23.0000    -3.0005     0.0010    20.7694    41.5442     2.6285     1.9998     0.0000     0.0139    14.4503    14.4453     0.0050     1.6918     1.0000     0.0000     3.5182     3.4465     2.2477    35.0331    35.0000     4.0000     2.000
     10  -115.4534      5.000    307.000 198600.000      8.387    41.5367    -0.0000   -59.6975     0.6032     0.1990    22.0000     7.0000     8.0000    22.0000    23.0000     3.0000     7.0000    23.0000    -3.0005     0.0010    20.7694    41.5442     2.6285     1.9998     0.0000     0.0073    14.4503    14.4453     0.0050     1.6926     1.0000     0.0000     3.5818     3.5117     2.2519    35.0037    35.0000     4.0000     2.000
     11  -115.5534      5.000    421.000 198508.000      8.383    41.5367     0.0001   -59.6975     0.6032     0.1990    22.0000     7.0000     8.0000    22.0000    23.0000     3.0000     7.0000    23.0000    -3.0005     0.0010    20.7694    41.5442     2.6285     1.9998     0.0000     0.0006    14.4503    14.4453     0.0050     1.6929     1.0000     0.0000     3.6653     3.6013     2.2563    34.9669    35.0000     4.0000     2.000
     12  -115.6534      5.000    268.000 199193.000      8.412    41.5367    -0.0000   -59.6975     0.6032     0.1990    22.0000     7.0000     8.0000    22.0000    23.0000     3.0000     7.0000    23.0000    -3.0005     0.0010    20.7694    41.5442     2.6285     1.9998     0.0000    -0.0061    14.4503    14.4453     0.0050     1.6927     1.0000     0.0000     3.7798     3.7112     2.2593    34.9933    35.0000     4.0000     2.000
     13  -115.7534      5.000    109.000 197406.000      8.337    41.5367     0.0000   -59.6975     0.6032     0.1990    22.0000     7.0000     8.0000    22.0000    23.0000     3.0000     7.0000    23.0000    -3.0005     0.0010    20.7694    41.5442     2.6285     1.9998     0.0000    -0.0128    14.4503    14.4453     0.0050     1.6929     1.0000     0.0000     3.8261     3.7572     2.2632    35.0334    35.0000     4.0000     2.000
     14  -115.8534      5.000     47.000 198163.000      8.369    41.5367     0.0001   -59.6975     0.6032     0.1990    22.0000     7.0000     8.0000    22.0000    23.0000     3.0000     7.0000    23.0000    -3.0005     0.0010    20.7694    41.5442     2.6285     1.9998     0.0000    -0.0195    14.4503    14.4453     0.0050     1.6928     1.0000     0.0000     3.8986     3.8317     2.2678    35.0062    35.0000     4.0000     2.000
     15  -115.9534      5.000     13.000 197402.000      8.336    41.5367     0.0001   -59.6975     0.6032     0.1990    22.0000     7.0000     8.0000    22.0000    23.0000     3.0000     7.0000    23.0000    -3.0005     0.0010    20.7694    41.5442     2.6285     1.9998     0.0000    -0.0262    14.4503    14.4453     0.0050     1.6924     1.0000     0.0000     3.9440     3.8759     2.2696    34.9656    35.0000     4.0000     2.000
     16  -116.0534      5.000     12.000 197661.000      8.347    41.5367    -0.0000   -59.6975     0.6032     0.1990    22.0000     7.0000     8.0000    22.0000    23.0000     3.0000     7.0000    23.0000    -3.0005     0.0010    20.7694    41.5442     2.6285     1.9997     0.0000    -0.0328    14.4503    14.4453     0.0050     1.6912     1.0000     0.0000     4.0186     3.9572     2.2730    35.0030    35.0000     4.0000     2.000
     17  -116.1534      5.000     17.000 197990.000      8.361    41.5367     0.0000   -59.6975     0.6032     0.1990    22.0000     7.0000     8.0000    22.0000    23.0000     3.0000     7.0000    23.0000    -3.0005     0.0010    20.7694    41.5442     2.6285     1.9997     0.0000    -0.0395    14.4503    14.4453     0.0050     1.6907     1.0000     0.0000     4.0985     4.0366     2.2763    35.0319    35.0000     4.0000     2.000
     18  -116.2534      5.000     14.000 198532.000      8.384    41.5367    -0.0000   -59.6975     0.6032     0.1990    22.0000     7.0000     8.0000    22.0000    23.0000     3.0000     7.0000    23.0000    -3.0005     0.0010    20.7694    41.5442     2.6285     1.9997     0.0000    -0.0462    14.4503    14.4453     0.0050     1.6902     1.0000     0.0000     4.1379     4.0753     2.2795    34.9940    35.0000     4.0000     2.000
     19  -116.3534      5.000     10.000 199057.000      8.406    41.5367     0.0000   -59.6975     0.6032     0.1990    22.0000     7.0000     8.0000    22.0000    23.0000     3.0000     7.0000    23.0000    -3.0005     0.0010    20.7694    41.5442     2.6285     1.9996     0.0000    -0.0529    14.4503    14.4453     0.0050     1.6897     1.0000     0.0000     4.1769     4.1140     2.2820    34.9680    35.0000     4.0000     2.000
     20  -116.4534      5.000      9.000 198133.000      8.367    41.5367     0.0000   -59.6975     0.6032     0.1990    22.0000     7.0000     8.0000    22.0000    23.0000     3.0000     7.0000    23.0000    -3.0005     0.0010    20.7695    41.5442     2.6285     1.9996     0.0000    -0.0596    14.4503    14.4453     0.0050     1.6891     1.0000     0.0000     4.2591     4.1979     2.2837    35.0154    35.0000     4.0000     2.000
     21  -116.5534      5.000     15.000 198488.000      8.382    41.5367    -0.0000   -59.6975     0.6032     0.1990    22.0000     7.0000     8.0000    22.0000    23.0000     3.0000     7.0000    23.0000    -3.0005     0.0010    20.7695    41.5442     2.6285     1.9995     0.0000    -0.0662    14.4503    14.4453     0.0050     1.6887     1.0000     0.0000     4.2776     4.2174     2.2866    35.0301    35.0000     4.0000     2.000
# Sum of Counts = 1520
# Center of Mass = -115.548926+/-4.191406
# Full Width Half-Maximum = 0.542968+/-1.351433
# 7:03:43 PM  8/16/2024   scan completed.
