# scan = 14
# date = 2/20/2025
# time = 4:59:50 PM
# proposal = 33477
# experiment = Commissioning and enabling the 4-circle capability at VERITAS
# experiment_number = 1046
# command = scan slitb_tp 0 30 1
# builtin_command = scan slitb_tp 0 30 1
# users = Feng Ye, Mike McDowell, Jiasen Guo, Adam Aczel, Kaleb Burrage, Wei Tian, Bing Li, Zachary Morgan
# local_contact = Wei Tian
# scan_title = La2Ni7, look for [006]
# monochromator = PG002
# analyzer = Pg002
# sense = +-+
# collimation = 40-40-40-80
# samplename = La2Ni7, MnWO4
# sampletype = crystal
# samplemosaic = 30.000000
# latticeconstants = 5.060000,5.060000,24.640000,90.000000,90.000000,120.000000
# ubmatrix = -0.002408,-0.014879,0.040485,0.201922,0.192669,0.001686,-0.106292,0.121381,0.002286
# mode = 0
# plane_normal = 0.000000,0.000000,0.000000
# ubconf = UB20Feb2025_125402PM.ini
# preset_type = normal 
# preset_channel = mcu
# preset_value = 1.000000
# def_x = slitb_tp
# def_y = detector
# col_headers = 
#   Pt.   slitb_tp       time   detector    monitor        mcu         m2        chi        phi      omega     2theta   slitb_bt   slitb_lf   slitb_rt   slita_bt   slita_lf   slita_rt   slita_tp         a1         a2          h          k          l          e         ei
      1     0.0000      0.994  32184.000  19301.000      1.000    41.5367     2.1920    92.4318   -28.0582   -56.1257    30.0000    20.0000    20.0000    24.0000    10.0000    10.0000    24.0000    20.7699    41.5141    -1.0002    -1.0002    -0.0123     0.0000    14.450
      2     1.0000      0.982  33092.000  19301.000      1.000    41.5367     2.1920    92.4318   -28.0582   -56.1257    30.0000    20.0000    20.0000    24.0000    10.0000    10.0000    24.0000    20.7699    41.5141    -1.0002    -1.0002    -0.0123     0.0000    14.450
      3     2.0000      0.992  34777.000  19301.000      1.000    41.5367     2.1920    92.4318   -28.0582   -56.1257    30.0000    20.0000    20.0000    24.0000    10.0000    10.0000    24.0000    20.7699    41.5141    -1.0002    -1.0002    -0.0123     0.0000    14.450
      4     3.0000      0.994  36499.000  19301.000      1.000    41.5367     2.1920    92.4318   -28.0582   -56.1257    30.0000    20.0000    20.0000    24.0000    10.0000    10.0000    24.0000    20.7699    41.5141    -1.0002    -1.0002    -0.0123     0.0000    14.450
      5     4.0000      1.001  38367.000  19301.000      1.000    41.5367     2.1920    92.4318   -28.0582   -56.1257    30.0000    20.0000    20.0000    24.0000    10.0000    10.0000    24.0000    20.7699    41.5141    -1.0002    -1.0002    -0.0123     0.0000    14.450
      6     5.0000      0.977  38085.000  19301.000      1.000    41.5367     2.1920    92.4318   -28.0582   -56.1257    30.0000    20.0000    20.0000    24.0000    10.0000    10.0000    24.0000    20.7699    41.5141    -1.0002    -1.0002    -0.0123     0.0000    14.450
      7     6.0000      0.971  39279.000  19301.000      1.000    41.5367     2.1920    92.4318   -28.0582   -56.1257    30.0000    20.0000    20.0000    24.0000    10.0000    10.0000    24.0000    20.7699    41.5141    -1.0002    -1.0002    -0.0123     0.0000    14.450
      8     7.0000      0.991  40913.000  19301.000      1.000    41.5367     2.1920    92.4318   -28.0582   -56.1257    30.0000    20.0000    20.0000    24.0000    10.0000    10.0000    24.0000    20.7699    41.5141    -1.0002    -1.0002    -0.0123     0.0000    14.450
      9     8.0000      0.980  42215.000  19301.000      1.000    41.5367     2.1920    92.4318   -28.0582   -56.1257    30.0000    20.0000    20.0000    24.0000    10.0000    10.0000    24.0000    20.7699    41.5141    -1.0002    -1.0002    -0.0123     0.0000    14.450
     10     9.0000      0.983  43573.000  19301.000      1.000    41.5367     2.1920    92.4318   -28.0582   -56.1257    30.0000    20.0000    20.0000    24.0000    10.0000    10.0000    24.0000    20.7699    41.5141    -1.0002    -1.0002    -0.0123     0.0000    14.450
     11    10.0000      0.985  45003.000  19301.000      1.000    41.5367     2.1920    92.4318   -28.0582   -56.1257    30.0000    20.0000    20.0000    24.0000    10.0000    10.0000    24.0000    20.7699    41.5141    -1.0002    -1.0002    -0.0123     0.0000    14.450
     12    11.0000      0.985  46327.000  19301.000      1.000    41.5367     2.1920    92.4318   -28.0582   -56.1257    30.0000    20.0000    20.0000    24.0000    10.0000    10.0000    24.0000    20.7699    41.5141    -1.0002    -1.0002    -0.0123     0.0000    14.450
     13    12.0000      0.992  47627.000  19301.000      1.000    41.5367     2.1920    92.4318   -28.0582   -56.1257    30.0000    20.0000    20.0000    24.0000    10.0000    10.0000    24.0000    20.7699    41.5141    -1.0002    -1.0002    -0.0123     0.0000    14.450
     14    13.0000      0.997  48741.000  19301.000      1.000    41.5367     2.1920    92.4318   -28.0582   -56.1257    30.0000    20.0000    20.0000    24.0000    10.0000    10.0000    24.0000    20.7699    41.5141    -1.0002    -1.0002    -0.0123     0.0000    14.450
     15    14.0000      1.006  50392.000  19301.000      1.000    41.5367     2.1920    92.4318   -28.0582   -56.1257    30.0000    20.0000    20.0000    24.0000    10.0000    10.0000    24.0000    20.7699    41.5141    -1.0002    -1.0002    -0.0123     0.0000    14.450
     16    15.0000      0.994  50695.000  19301.000      1.000    41.5367     2.1920    92.4318   -28.0582   -56.1257    30.0000    20.0000    20.0000    24.0000    10.0000    10.0000    24.0000    20.7699    41.5141    -1.0002    -1.0002    -0.0123     0.0000    14.450
     17    16.0000      0.996  52532.000  19301.000      1.000    41.5367     2.1920    92.4318   -28.0582   -56.1257    30.0000    20.0000    20.0000    24.0000    10.0000    10.0000    24.0000    20.7699    41.5141    -1.0002    -1.0002    -0.0123     0.0000    14.450
     18    17.0000      0.996  53738.000  19301.000      1.000    41.5367     2.1920    92.4318   -28.0582   -56.1257    30.0000    20.0000    20.0000    24.0000    10.0000    10.0000    24.0000    20.7699    41.5141    -1.0002    -1.0002    -0.0123     0.0000    14.450
     19    18.0000      0.998  55044.000  19301.000      1.000    41.5367     2.1920    92.4318   -28.0582   -56.1257    30.0000    20.0000    20.0000    24.0000    10.0000    10.0000    24.0000    20.7699    41.5141    -1.0002    -1.0002    -0.0123     0.0000    14.450
     20    19.0000      0.983  55598.000  19301.000      1.000    41.5367     2.1920    92.4318   -28.0582   -56.1257    30.0000    20.0000    20.0000    24.0000    10.0000    10.0000    24.0000    20.7699    41.5141    -1.0002    -1.0002    -0.0123     0.0000    14.450
     21    20.0000      1.003  57934.000  19301.000      1.000    41.5367     2.1920    92.4318   -28.0582   -56.1257    30.0000    20.0000    20.0000    24.0000    10.0000    10.0000    24.0000    20.7699    41.5141    -1.0002    -1.0002    -0.0123     0.0000    14.450
     22    21.0000      0.990  58050.000  19301.000      1.000    41.5367     2.1920    92.4318   -28.0582   -56.1257    30.0000    20.0000    20.0000    24.0000    10.0000    10.0000    24.0000    20.7699    41.5141    -1.0002    -1.0002    -0.0123     0.0000    14.450
     23    22.0000      0.992  58774.000  19301.000      1.000    41.5367     2.1920    92.4318   -28.0582   -56.1257    30.0000    20.0000    20.0000    24.0000    10.0000    10.0000    24.0000    20.7699    41.5141    -1.0002    -1.0002    -0.0123     0.0000    14.450
     24    23.0000      0.992  59033.000  19301.000      1.000    41.5367     2.1920    92.4318   -28.0582   -56.1257    30.0000    20.0000    20.0000    24.0000    10.0000    10.0000    24.0000    20.7699    41.5141    -1.0002    -1.0002    -0.0123     0.0000    14.450
     25    24.0000      0.995  59986.000  19301.000      1.000    41.5367     2.1920    92.4318   -28.0582   -56.1257    30.0000    20.0000    20.0000    24.0000    10.0000    10.0000    24.0000    20.7699    41.5141    -1.0002    -1.0002    -0.0123     0.0000    14.450
     26    25.0000      0.973  58784.000  19301.000      1.000    41.5367     2.1920    92.4318   -28.0582   -56.1257    30.0000    20.0000    20.0000    24.0000    10.0000    10.0000    24.0000    20.7699    41.5141    -1.0002    -1.0002    -0.0123     0.0000    14.450
     27    26.0000      0.983  60176.000  19301.000      1.000    41.5367     2.1920    92.4318   -28.0582   -56.1257    30.0000    20.0000    20.0000    24.0000    10.0000    10.0000    24.0000    20.7699    41.5141    -1.0002    -1.0002    -0.0123     0.0000    14.450
     28    27.0000      0.996  61056.000  19301.000      1.000    41.5367     2.1920    92.4318   -28.0582   -56.1257    30.0000    20.0000    20.0000    24.0000    10.0000    10.0000    24.0000    20.7699    41.5141    -1.0002    -1.0002    -0.0123     0.0000    14.450
     29    28.0000      0.992  60996.000  19301.000      1.000    41.5367     2.1920    92.4318   -28.0582   -56.1257    30.0000    20.0000    20.0000    24.0000    10.0000    10.0000    24.0000    20.7699    41.5141    -1.0002    -1.0002    -0.0123     0.0000    14.450
     30    29.0000      0.989  60705.000  19301.000      1.000    41.5367     2.1920    92.4318   -28.0582   -56.1257    30.0000    20.0000    20.0000    24.0000    10.0000    10.0000    24.0000    20.7699    41.5141    -1.0002    -1.0002    -0.0123     0.0000    14.450
     31    30.0000      0.991  60783.000  19301.000      1.000    41.5367     2.1920    92.4318   -28.0582   -56.1257    30.0000    20.0000    20.0000    24.0000    10.0000    10.0000    24.0000    20.7699    41.5141    -1.0002    -1.0002    -0.0123     0.0000    14.450
# Sum of Counts = 1540958
# Center of Mass = 16.666631+/-0.020228
# Full Width Half-Maximum = 17.318922+/-0.013886
# 5:01:44 PM  2/20/2025   scan completed.
